Time (S)	CHA (V)	CH2 (V)	CH3 (V)
0.000	2.000	-0.102	-0.127
0.026	2.001	-0.090	-0.113
0.050	2.001	-0.103	-0.129
0.075	2.001	-0.094	-0.117
0.100	2.001	-0.103	-0.128
0.125	2.001	-0.093	-0.117
0.151	2.001	-0.103	-0.117
0.175	2.001	-0.093	-0.138
0.200	2.001	-0.103	-0.168
0.225	2.001	-0.093	-0.168
0.250	2.001	-0.102	-0.188
0.275	2.001	-0.092	-0.192
0.300	2.001	-0.100	-0.212
0.325	2.001	-0.090	-0.205
0.350	2.001	-0.100	-0.227
0.375	2.001	-0.088	-0.231
0.400	2.001	-0.099	-0.257
0.425	2.001	-0.089	-0.256
0.450	2.001	-0.098	-0.276
0.475	2.001	-0.088	-0.272
0.500	2.001	-0.097	-0.284
0.525	2.001	-0.087	-0.275
0.550	2.001	-0.096	-0.285
0.575	2.001	-0.087	-0.272
0.600	2.001	-0.096	-0.284
0.625	2.001	-0.086	-0.272
0.650	2.001	-0.096	-0.285
0.675	2.001	-0.086	-0.272
0.700	2.001	-0.096	-0.283
0.725	2.001	-0.086	-0.272
0.750	2.001	-0.096	-0.285
0.775	-1.999	-0.063	-0.272
0.800	-1.999	-0.038	-0.284
0.825	-1.999	0.003	-0.271
0.851	-1.999	0.018	-0.282
0.875	-1.999	0.045	-0.270
0.900	-1.999	0.052	-0.280
0.925	-1.998	0.073	-0.269
0.950	-1.999	0.072	-0.283
0.975	-1.999	0.090	-0.267
1.000	-1.999	0.086	-0.271
1.025	-1.999	0.099	-0.258
1.050	-1.999	0.093	-0.269
1.075	-1.999	0.107	-0.253
1.100	-1.999	0.099	-0.261
1.126	-1.999	0.113	-0.226
1.151	-1.999	0.102	-0.246
1.175	-1.999	0.112	-0.213
1.200	-1.999	0.102	-0.211
1.225	-1.999	0.112	-0.201
1.250	-1.999	0.109	-0.207
1.275	-1.999	0.113	-0.201
1.300	-1.999	0.104	-0.212
1.325	-1.999	0.115	-0.199
1.350	-1.999	0.104	-0.211
1.375	-1.999	0.114	-0.202
1.401	-1.999	0.102	-0.215
1.425	-1.999	0.114	-0.200
1.450	-1.999	0.104	-0.213
1.475	-1.998	0.112	-0.178
1.500	-1.999	0.103	-0.141
1.525	-1.999	0.114	-0.077
1.550	-1.999	0.102	-0.029
1.575	-1.999	0.108	0.036
1.600	-1.999	0.098	0.071
1.625	-1.999	0.106	0.131
1.650	-1.999	0.095	0.162
1.675	-1.999	0.102	0.231
1.700	-1.999	0.090	0.277
1.725	-1.999	0.097	0.342
1.750	-1.999	0.084	0.396
1.775	-1.999	0.091	0.456
1.800	-1.999	0.080	0.493
1.826	-1.999	0.087	0.556
1.851	-1.999	0.075	0.596
1.875	-1.999	0.081	0.664
1.901	-1.999	0.067	0.718
1.925	-1.999	0.076	0.785
1.950	-1.999	0.067	0.818
1.975	-1.999	0.073	0.871
2.000	-1.999	0.059	0.893
2.026	-1.999	0.068	0.936
2.050	-1.999	0.054	0.969
2.075	-1.999	0.062	0.996
2.100	-1.999	0.052	0.987
2.125	-1.999	0.059	0.999
2.151	-1.999	0.048	0.987
2.175	-1.999	0.052	0.995
2.200	-1.999	0.046	0.989
2.225	-1.999	0.054	0.997
2.250	-1.999	0.043	0.985
2.275	-1.999	0.054	1.000
2.300	-1.999	0.044	0.988
2.326	-1.999	0.057	1.002
2.350	-1.999	0.044	0.987
2.375	-1.999	0.053	0.998
2.401	-1.999	0.044	0.989
2.425	-1.999	0.056	1.001
2.450	-1.999	0.044	0.989
2.475	-1.999	0.055	1.002
2.500	-1.999	0.044	0.989
2.525	-1.999	0.052	0.999
2.550	-1.999	0.044	0.989
2.575	-1.999	0.052	0.999
2.600	-1.999	0.044	0.990
2.625	-1.999	0.055	1.003
2.651	-1.999	0.042	0.991
2.675	-1.999	0.057	1.007
2.701	-1.998	0.044	0.993
2.726	-1.998	0.058	1.006
2.750	-1.999	0.041	0.993
2.775	-1.999	0.058	1.010
2.800	-1.999	0.043	0.993
2.826	-1.999	0.054	1.004
2.851	-1.999	0.041	0.991
2.875	-1.999	0.058	1.010
2.900	-1.999	0.042	0.993
2.925	-1.998	0.055	1.006
2.951	-1.999	0.044	0.993
2.975	-1.999	0.048	1.002
3.000	-1.999	0.042	0.993
3.025	-1.999	0.050	1.003
3.051	-1.999	0.044	0.995
3.075	-1.999	0.054	1.007
3.100	-1.999	0.044	0.994
3.125	-1.999	0.049	1.000
3.151	-1.999	0.043	0.995
3.175	-1.999	0.058	1.012
3.200	-1.999	0.048	1.001
3.225	-1.999	0.056	1.010
3.250	-1.999	0.039	0.988
3.275	-1.999	0.058	1.012
3.300	-1.999	0.040	0.989
3.325	-1.999	0.055	1.007
3.350	-1.999	0.039	0.988
3.375	-1.999	0.060	1.012
3.400	-1.999	0.038	0.988
3.425	-1.999	0.052	1.005
3.450	-1.999	0.037	0.989
3.475	-1.999	0.056	1.010
3.500	-1.999	0.037	0.989
3.525	-1.999	0.052	1.004
3.550	-1.998	0.042	0.991
3.575	-1.999	0.058	1.010
3.600	-1.999	0.039	0.987
3.625	-1.999	0.053	1.004
3.650	-1.999	0.038	0.989
3.675	-1.999	0.055	1.007
3.700	-1.998	0.038	0.989
3.725	-1.999	0.051	1.004
3.750	-1.999	0.042	0.993
3.775	-1.999	0.058	1.009
3.800	-1.999	0.040	0.990
3.825	-1.999	0.057	1.008
3.851	-1.999	0.043	0.995
3.875	-1.999	0.055	1.008
3.901	-1.999	0.044	0.994
3.925	-1.999	0.053	1.006
3.950	-1.999	0.041	0.990
3.975	-1.999	0.054	1.006
4.000	-1.999	0.040	0.993
4.025	-1.999	0.056	1.007
4.050	-1.999	0.042	0.993
4.075	-1.999	0.057	1.008
4.101	-1.999	0.043	0.995
4.125	-2.000	0.052	1.003
4.151	-2.000	0.045	0.994
4.175	-1.999	0.052	1.004
4.200	-1.999	0.041	0.989
4.225	-1.999	0.054	1.004
4.250	-1.999	0.041	0.990
4.275	2.001	0.041	1.002
4.300	2.001	-0.004	0.993
4.326	2.001	-0.031	1.003
4.351	2.001	-0.061	0.995
4.375	2.001	-0.071	1.004
4.400	2.001	-0.100	0.983
4.425	2.001	-0.100	0.997
4.450	2.001	-0.122	0.970
4.475	2.001	-0.117	0.964
4.500	2.001	-0.135	0.919
4.525	2.001	-0.128	0.952
4.550	2.001	-0.144	0.941
4.575	2.001	-0.137	0.951
4.601	2.001	-0.146	0.942
4.625	2.001	-0.141	0.954
4.650	2.001	-0.153	0.939
4.675	2.001	-0.142	0.876
4.700	2.001	-0.155	0.845
4.725	2.001	-0.142	0.785
4.751	2.001	-0.150	0.677
4.775	2.001	-0.136	0.588
4.800	2.001	-0.148	0.470
4.825	2.001	-0.131	0.369
4.851	2.001	-0.138	0.217
4.875	2.001	-0.125	0.122
4.901	2.001	-0.128	-0.059
4.925	2.001	-0.113	-0.173
4.950	2.000	-0.119	-0.312
4.975	2.001	-0.100	-0.434
5.000	2.001	-0.107	-0.547
5.025	2.001	-0.092	-0.649
5.050	2.001	-0.098	-0.785
5.075	2.001	-0.080	-0.950
5.100	2.000	-0.082	-1.107
5.125	2.001	-0.062	-1.221
5.150	2.001	-0.069	-1.358
5.175	2.001	-0.050	-1.465
5.200	2.001	-0.055	-1.585
5.225	2.001	-0.037	-1.675
5.251	2.001	-0.042	-1.793
5.275	2.001	-0.028	-1.866
5.300	2.001	-0.037	-1.964
5.325	2.001	-0.016	-2.006
5.350	2.001	-0.025	-2.067
5.375	2.001	-0.007	-2.079
5.401	2.001	-0.013	-2.133
5.425	2.001	-0.003	-2.144
5.450	2.001	-0.013	-2.160
5.475	2.001	0.004	-2.165
5.500	2.001	-0.008	-2.186
5.525	2.001	0.004	-2.177
5.550	2.001	-0.004	-2.188
5.575	2.001	0.010	-2.172
5.600	2.001	-0.000	-2.185
5.625	2.001	0.008	-2.175
5.650	2.001	-0.001	-2.186
5.675	2.001	0.010	-2.173
5.700	2.001	-0.001	-2.186
5.725	2.001	0.012	-2.171
5.750	2.001	-0.001	-2.184
5.776	2.001	0.008	-2.172
5.801	2.001	0.004	-2.179
5.825	2.001	0.010	-2.170
5.851	2.001	0.002	-2.179
5.875	2.001	0.010	-2.170
5.900	2.001	0.000	-2.182
5.925	2.001	0.013	-2.166
5.950	2.001	0.001	-2.179
5.975	2.001	0.012	-2.168
6.000	2.001	0.002	-2.178
6.025	2.001	0.012	-2.166
6.050	2.001	0.002	-2.177
6.075	2.001	0.012	-2.165
6.100	2.001	0.002	-2.177
6.125	2.001	0.012	-2.165
6.151	2.001	0.002	-2.173
6.175	2.001	0.012	-2.161
6.201	2.001	0.005	-2.171
6.225	2.001	0.010	-2.164
6.251	2.001	0.006	-2.169
6.275	2.001	0.010	-2.162
6.301	2.001	0.003	-2.170
6.325	2.001	0.011	-2.161
6.350	2.001	-0.002	-2.177
6.375	2.001	0.014	-2.158
6.400	2.001	0.000	-2.173
6.425	2.001	0.012	-2.160
6.451	2.001	0.002	-2.169
6.475	2.001	0.012	-2.161
6.500	2.001	0.001	-2.171
6.526	2.001	0.008	-2.163
6.551	2.001	0.002	-2.169
6.575	2.001	0.012	-2.159
6.600	2.001	0.000	-2.172
6.625	2.001	0.011	-2.160
6.651	2.001	0.004	-2.168
6.675	2.001	0.011	-2.160
6.700	2.001	0.002	-2.170
6.725	2.001	0.012	-2.159
6.750	2.001	-0.002	-2.174
6.775	2.001	0.010	-2.158
6.800	2.001	0.000	-2.173
6.825	2.001	0.011	-2.160
6.851	2.001	0.002	-2.169
6.875	2.001	0.010	-2.159
6.901	2.001	0.004	-2.165
6.925	2.001	0.011	-2.160
6.950	2.001	0.001	-2.169
6.975	2.001	0.010	-2.159
7.000	2.001	-0.001	-2.171
7.025	2.001	0.014	-2.156
7.050	2.001	-0.002	-2.171
7.075	2.001	0.010	-2.158
7.100	2.001	0.001	-2.169
7.126	2.001	0.006	-2.163
7.151	2.001	0.006	-2.163
7.175	2.001	0.010	-2.159
7.201	2.001	0.005	-2.164
7.225	2.001	0.009	-2.160
7.250	2.001	0.000	-2.169
7.275	2.001	0.010	-2.158
7.300	2.001	-0.000	-2.169
7.325	2.001	0.011	-2.158
7.350	2.001	0.001	-2.170
7.375	2.001	0.012	-2.156
7.401	2.001	0.005	-2.163
7.425	2.001	0.009	-2.158
7.451	2.001	0.004	-2.165
7.475	2.001	0.008	-2.159
7.500	2.001	0.002	-2.167
7.525	2.001	0.010	-2.158
7.550	2.001	0.001	-2.167
7.575	2.001	0.012	-2.156
7.600	2.001	0.001	-2.168
7.625	2.002	0.011	-2.156
7.650	2.001	0.002	-2.167
7.675	2.001	0.009	-2.158
7.700	2.001	0.001	-2.167
7.725	2.001	0.010	-2.156
7.751	2.001	0.004	-2.164
7.775	-1.999	0.016	-2.161
7.800	-1.999	0.050	-2.165
7.825	-1.999	0.089	-2.156
7.851	-1.999	0.112	-2.158
7.875	-1.999	0.135	-2.150
7.900	-1.999	0.143	-2.140
7.925	-1.998	0.164	-2.128
7.950	-1.999	0.167	-2.137
7.975	-1.999	0.181	-2.131
8.000	-1.999	0.180	-2.137
8.025	-1.999	0.191	-2.048
8.051	-1.999	0.192	-1.946
8.075	-1.999	0.196	-1.791
8.100	-1.999	0.186	-1.587
8.125	-1.999	0.190	-1.367
8.150	-1.999	0.178	-1.112
8.175	-1.999	0.177	-0.847
8.200	-1.999	0.161	-0.636
8.225	-1.999	0.161	-0.359
8.251	-1.999	0.148	-0.059
8.275	-1.999	0.141	0.152
8.300	-1.999	0.123	0.439
8.325	-1.999	0.119	0.674
8.350	-1.999	0.098	0.971
8.375	-1.999	0.096	1.253
8.400	-1.999	0.074	1.488
8.425	-1.999	0.069	1.789
8.450	-1.999	0.048	2.055
8.476	-1.999	0.038	2.392
8.500	-1.999	0.021	2.640
8.526	-1.999	0.010	2.926
8.550	-1.999	-0.007	3.176
8.575	-1.999	-0.011	3.431
8.600	-1.999	-0.035	3.623
8.625	-1.999	-0.039	3.800
8.650	-1.999	-0.057	3.961
8.675	-1.999	-0.062	4.172
8.700	-1.999	-0.080	4.326
8.725	-1.999	-0.084	4.548
8.751	-1.998	-0.096	4.652
8.775	-1.999	-0.101	4.786
8.800	-1.999	-0.119	4.852
8.825	-1.999	-0.118	4.940
8.851	-1.999	-0.128	4.987
8.875	-1.999	-0.130	4.997
8.900	-1.999	-0.142	4.985
8.926	-1.999	-0.142	4.958
8.950	-1.998	-0.148	4.934
8.975	-1.999	-0.146	4.938
9.000	-1.999	-0.151	4.933
9.025	-1.999	-0.146	4.940
9.050	-1.999	-0.151	4.935
9.076	-1.999	-0.149	4.818
9.101	-1.999	-0.148	4.741
9.125	-1.999	-0.146	4.665
9.151	-1.999	-0.144	4.569
9.175	-1.999	-0.140	4.444
9.200	-1.999	-0.140	4.295
9.225	-1.999	-0.133	4.157
9.250	-1.999	-0.132	4.027
9.275	-1.999	-0.121	3.894
9.300	-1.999	-0.117	3.750
9.325	-1.999	-0.108	3.612
9.350	-1.999	-0.107	3.490
9.376	-1.998	-0.098	3.328
9.400	-1.999	-0.093	3.181
9.426	-1.998	-0.086	3.070
9.450	-1.999	-0.078	2.926
9.475	-1.999	-0.071	2.809
9.500	-1.999	-0.066	2.707
9.525	-1.999	-0.059	2.586
9.551	-1.999	-0.052	2.488
9.575	-1.999	-0.046	2.408
9.600	-1.999	-0.042	2.329
9.625	-1.999	-0.037	2.266
9.650	-1.999	-0.032	2.207
9.676	-1.999	-0.029	2.149
9.700	-1.999	-0.027	2.100
9.725	-1.999	-0.020	2.064
9.750	-1.999	-0.020	2.028
9.775	-1.998	-0.010	2.020
9.800	-1.999	-0.017	1.991
9.825	-1.999	-0.008	1.999
9.850	-1.999	-0.008	1.995
9.876	-1.999	-0.007	1.995
9.900	-1.999	-0.009	1.990
9.926	-1.999	-0.006	1.995
9.950	-1.999	-0.006	1.993
9.976	-1.999	-0.005	1.995
10.000	-1.999	-0.007	1.992
10.025	-1.999	-0.002	1.996
10.051	-1.999	-0.003	1.996
10.075	-1.999	0.001	1.999
10.100	-1.999	-0.004	1.995
10.125	-1.999	-0.002	1.997
10.150	-1.999	-0.003	1.995
10.175	-1.999	-0.002	1.997
10.201	-1.999	-0.002	1.997
10.225	-1.999	0.001	1.999
10.250	-1.999	-0.006	1.992
10.275	-1.999	-0.003	1.996
10.300	-1.998	-0.005	1.993
10.325	-1.999	0.001	1.999
10.351	-1.999	-0.002	1.995
10.375	-1.999	-0.002	1.995
10.400	-1.999	-0.003	1.995
10.426	-1.999	-0.003	1.996
10.450	-1.999	-0.006	1.992
10.475	-1.999	-0.003	1.995
10.500	-1.999	-0.005	1.993
10.525	-1.999	-0.003	1.995
10.551	-1.999	-0.002	1.997
10.576	-1.999	-0.003	1.996
10.601	-1.999	-0.002	1.997
10.625	-1.999	-0.004	1.995
10.650	-1.999	-0.002	1.995
10.676	-1.999	-0.004	1.995
10.700	-1.999	-0.002	1.995
10.725	-1.999	-0.003	1.995
10.750	-1.998	-0.004	1.993
10.775	-1.998	-0.002	1.995
10.800	-1.999	-0.003	1.995
10.825	-1.998	-0.000	1.999
10.851	-1.999	-0.002	1.996
10.875	-1.999	-0.002	1.995
10.900	-1.999	-0.003	1.996
10.925	-1.999	-0.003	1.995
10.950	-1.999	-0.002	1.997
10.975	-1.999	-0.002	1.995
11.000	-1.999	-0.003	1.995
11.025	-1.999	-0.004	1.995
11.050	-1.999	-0.002	1.995
11.075	-1.999	-0.003	1.995
11.100	-1.999	-0.002	1.996
11.125	-1.999	-0.000	1.997
11.151	-1.999	-0.002	1.997
11.175	-1.999	-0.002	1.995
11.200	-1.999	-0.002	1.994
11.225	-1.999	-0.000	1.998
11.251	-1.999	-0.002	1.995
11.275	2.001	-0.013	1.995
11.300	2.001	-0.052	1.992
11.325	2.001	-0.081	1.996
11.350	2.001	-0.109	1.995
11.375	2.001	-0.128	1.995
11.400	2.001	-0.144	1.993
11.425	2.001	-0.157	1.968
11.450	2.001	-0.166	1.937
11.475	2.001	-0.174	1.889
11.500	2.001	-0.179	1.806
11.525	2.001	-0.184	1.705
11.551	2.001	-0.183	1.605
11.575	2.001	-0.183	1.468
11.600	2.001	-0.181	1.309
11.625	2.001	-0.177	1.134
11.650	2.001	-0.174	0.969
11.675	2.001	-0.169	0.790
11.700	2.001	-0.162	0.597
11.725	2.001	-0.157	0.411
11.750	2.001	-0.148	0.190
11.775	2.001	-0.140	-0.046
11.800	2.001	-0.130	-0.263
11.825	2.001	-0.122	-0.477
11.850	2.001	-0.113	-0.644
11.875	2.001	-0.103	-0.862
11.900	2.001	-0.092	-1.160
11.925	2.001	-0.081	-1.390
11.950	2.001	-0.070	-1.622
11.975	2.000	-0.059	-1.870
12.000	2.001	-0.047	-2.062
12.026	2.001	-0.038	-2.216
12.050	2.001	-0.027	-2.390
12.076	2.001	-0.018	-2.553
12.100	2.001	-0.006	-2.719
12.125	2.001	0.002	-2.877
12.151	2.001	0.016	-3.028
12.175	2.001	0.019	-3.164
12.200	2.001	0.029	-3.293
12.225	2.001	0.036	-3.427
12.250	2.001	0.044	-3.534
12.275	2.001	0.051	-3.650
12.300	2.001	0.056	-3.745
12.325	2.001	0.064	-3.849
12.350	2.001	0.071	-3.929
12.375	2.001	0.075	-3.993
12.400	2.001	0.081	-4.052
12.425	2.001	0.085	-4.078
12.451	2.001	0.094	-4.091
12.475	2.001	0.091	-4.099
12.500	2.001	0.096	-4.066
12.525	2.001	0.096	-4.068
12.550	2.001	0.098	-4.067
12.575	2.001	0.097	-4.046
12.600	2.001	0.099	-4.014
12.625	2.001	0.098	-4.015
12.650	2.001	0.100	-4.022
12.675	2.001	0.099	-4.024
12.700	2.001	0.100	-4.024
12.725	2.001	0.098	-4.024
12.750	2.001	0.099	-4.024
12.775	2.001	0.098	-4.022
12.800	2.001	0.101	-4.022
12.825	2.001	0.100	-4.023
12.850	2.001	0.100	-4.022
12.875	2.001	0.098	-4.023
12.900	2.001	0.100	-4.022
12.925	2.001	0.100	-3.978
12.950	2.001	0.099	-3.941
12.976	2.001	0.096	-3.921
13.000	2.001	0.098	-3.884
13.025	2.001	0.094	-3.840
13.050	2.001	0.096	-3.778
13.075	2.001	0.092	-3.743
13.100	2.001	0.092	-3.698
13.125	2.001	0.089	-3.653
13.151	2.001	0.088	-3.592
13.175	2.001	0.085	-3.553
13.200	2.001	0.083	-3.509
13.226	2.001	0.080	-3.469
13.250	2.001	0.080	-3.442
13.276	2.001	0.077	-3.404
13.300	2.001	0.077	-3.361
13.325	2.001	0.073	-3.340
13.350	2.001	0.073	-3.313
13.375	2.001	0.068	-3.299
13.400	2.001	0.069	-3.291
13.425	2.001	0.067	-3.281
13.451	2.001	0.069	-3.273
13.475	2.001	0.064	-3.282
13.500	2.001	0.067	-3.281
13.525	2.001	0.063	-3.283
13.550	2.001	0.064	-3.281
13.575	2.001	0.062	-3.283
13.600	2.001	0.063	-3.283
13.625	2.001	0.063	-3.285
13.650	2.001	0.063	-3.284
13.675	2.001	0.062	-3.285
13.700	2.001	0.064	-3.284
13.726	2.001	0.060	-3.287
13.751	2.001	0.067	-3.277
13.775	2.001	0.062	-3.285
13.801	2.001	0.069	-3.276
13.825	2.001	0.062	-3.285
13.850	2.001	0.064	-3.281
13.875	2.001	0.062	-3.285
13.901	2.001	0.067	-3.279
13.925	2.001	0.061	-3.285
13.950	2.001	0.063	-3.286
13.975	2.001	0.062	-3.288
14.001	2.001	0.064	-3.283
